MASS ABSORBTION COEFFICIENTS

Comments:

Each elements data starts with a line including the word "BEGIN" folllowed
by (in order):
	Element's name
	Chemical symbol
	Z - atomic number
	A - Atomic weight
	Density (in gr/cm^3)

Following the opening line the data is written as pairs of numbers.  The first 
entry of the pair is photon energy (in keV) and the second is mass absorbtion 
coefficient (in cm^2/gr).  The elements data ends with the word "END".  Blank 
lines and comments are allowed.

begin	Vacuum		_V	 0	0.	1e-38

	1e-3		   1e-38
	1e0		   1e-38
	1e3		   1e-38

end

begin	Hydrogen	 H	 1	1.008	0.00008988

	  1.000		    7.31
	  1.500		    2.16
	  2.000		    1.06
	  3.000		    0.561
	  5.000		    0.419
	 10.000		    0.385
	 15.000		    0.377
	 20.000		    0.370
	 30.000		    0.357
	 50.000		    0.336
	100.000		    0.294

end

begin	Helium		He	 4	4.003	0.0001795

	  1.000		   65.2
	  1.500		   17.2
	  2.000		    6.68
	  3.000		    1.89
	  5.000		    0.536
	 10.000		    0.244
	 15.000		    0.209
	 20.000		    0.196
	 30.000		    0.184
	 50.000		    0.171
	100.000		    0.149

end

begin	Berillium	Be	 4	9.01	1.848

	  1.000		  567.0
	  1.500		  174.0
	  2.000		   72.8
	  3.000		   20.5
	  5.000		    4.07
	 10.000		    0.589
	 15.000		    0.289
	 20.000		    0.218
	 30.000		    0.178
	 50.000		    0.155
	100.000		    0.133

end

Begin	Carbon		 C	 6	12.00	1.58

	  1.000		 2200
	  1.500		  710
	  2.000		  307
	  3.000		   90.6
	  5.000		   18.6
	 10.000		    2.19
	 15.000		    0.744
	 20.000		    0.414
	 30.000		    0.248
	 50.000		    0.186
	100.000		    0.151

end

Begin	Nitrogen	 N	 7	14.01	0.00125

	  1.000		 3400
	  1.500		 1120
	  2.000		  494
	  3.000		  149
	  5.000		   31.3
	 10.000		    3.67
	 15.000		    1.15
	 20.000		    0.580
	 30.000		    0.296
	 50.000		    0.196
	100.000		    0.153

end

Begin	Oxygen		 O	 8	16.00	0.001429

	  1.000		 4600
	  1.500		 1570
	  2.000		  706
	  3.000		  219
	  5.000		   47.4
	 10.000		    5.67
	 15.000		    1.72
	 20.000		    0.815
	 30.000		    0.363
	 50.000		    0.211
	100.000		    0.155

end

Begin	Neon		Ne	10	20.18	0.0009

	  1.000		 7610
	  1.500		 2720
	  2.000		 1260
	  3.000		  407
	  5.000		   92.1
	 10.000		   11.4
	 15.000		    3.41
	 20.000		    1.51
	 30.000		    0.567
	 50.000		    0.255
	100.000		    0.160

end

Begin	Aluminum	Al	13	26.98	2.699

	  1.000		 1180
	  1.500		  396
	  1.560		  356

	  1.560		 4240
	  2.000		 2310
	  3.000		  807
	  5.000		  198
	 10.000		   26.4
	 15.000		    7.89
	 20.000		    3.39
	 30.000		    1.11
	 50.000		    0.368
	100.000		    0.172

end

begin	Silicon		Si	14	28.09	2.33

	  1.000		 1610
	  1.500		  550
	  1.839		  320

	  1.839		 3320
	  2.000		 2720
	  3.000		  997
	  5.000		  253
	 10.000		   34.4
	 15.000		   10.3
	 20.000		    4.36
	 30.000		    1.38
	 50.000		    0.426
	100.000		    0.183

end

Begin	Argon		Ar	18	39.95	0.001784

	  1.000		 3300
	  1.500		 1124
	  2.000		  516
	  3.000		  170
	  3.202		  142

	  3.202		 1384
	  4.000		  789
	  5.000		  440
	 10.000		   64.2
	 15.000		   19.72
	 20.000		    8.44
	 30.000		    2.59
	 50.000		    0.672
	100.000		    0.201

end

Begin	Titanium	Ti	22	47.90	4.54

	  1.000		 6200
	  1.500		 2180
	  2.000		 1020
	  3.000		  343
	  4.965		   85.3

	  4.965		  712
	  6.000		  439
	 10.000		  112
	 15.000		   35.9
	 20.000		   15.7
	 30.000		    4.89
	 50.000		    1.19
	100.000		    0.271

end

Begin	Vanadium	 V	23	50.94	6.11

	  1.000		 6730
	  1.500		 2400
	  2.000		 1140
	  3.000		  384
	  5.000		   93.7
	  5.465		   73.1

	  5.465		  626
	  8.000		  226
	 10.000		  122
	 15.000		   38.9
	 20.000		   17.1
	 30.000		    5.33
	 50.000		    1.30
	100.000		    0.285

end

Begin	Iron		Fe	26	55.85	7.874

	  1.000		 9320
	  1.500		 3460
	  2.000		 1670
	  3.000		  574
	  5.000		  142
	  6.000		   85.0
	  7.112		   52.2

	  7.112		  415
	  8.000		  309
	 10.000		  173
	 15.000		   57.7
	 20.000		   25.8
	 30.000		    8.09
	 50.000		    1.91
	100.000		    0.364

end

Begin	Nickel		Ni	28	58.71	8.902

	  1.000		10500
	  1.012		10200

	  1.012		11800
	  1.500		 4390
	  2.000		 2090
	  3.000		  720
	  5.000		  181
	  8.000		   49.5
	  8.333		   44.2

	  8.333		  335
	 10.000		  211
	 15.000		   71.8
	 20.000		   32.4
	 30.000		   10.2
	 50.000		    2.40
	100.000		    0.430

end

Begin	Copper		Cu	29	63.55	8.96

	  1.000		12600
	  1.100		 9820

	  1.100		11370
	  1.500		 5050
	  2.000		 2350
	  3.000		  785
	  5.000		  193
	  8.000		   52.3
	  8.979		   37.9

	  8.979		  289
	 10.000		  219
	 15.000		   74.8
	 20.000		   33.9
	 30.000		   10.8
	 50.000		    2.57
	100.000		    0.453

end

Begin	Germanium	Ge	32	72.59	5.323

	  1.000		 2050
	  1.218		 1240

	  1.218		 7090
	  1.249		 6640

	  1.249		 9340
	  1.414		 6690

	  1.414		 7750
	  1.500		 6605
	  2.000		 3020
	  3.000		  999
	  5.000		  248
	 10.000		   37.6
	 11.104		   28.3

	 11.104		  195
	 15.000		   90.5
	 20.000		   42.0
	 30.000		   13.6
	 50.000		    3.23
	100.000		    0.536

end

Begin	Krypton		Kr	36	83.8	0.003733

	  1.000		 2850
	  1.500		 1145
	  1.675		  894

	  1.675		 3710
	  1.726		 3450

	  1.726		 4850
	  1.920		 3710

	  1.920		 4300
	  2.000		 3880
	  3.000		 1362
	  5.000		  352
	 10.000		   53.3
	 14.322		   19.7

	 14.322		  131
	 15.000		  117
	 20.000		   55.9
	 30.000		   18.7
	 50.000		    4.50
	100.000		    0.708

end

Begin	Molybdenum	Mo	42	95.94	10.22

	  1.000		 5363
	  1.500		 1966
	  2.000		  965
	  2.520		  545

	  2.520		 1990
	  2.625		 1799

	  2.625		 2530
	  2.866		 2030

	  2.866		 2359
	  3.000		 2100
	  5.000		  564
	 10.000		   87.2
	 15.000		   28.2
	 19.999		   12.6

	 19.999		   81.1
	 30.000		   28.4
	 50.000		    7.14
	100.000		    1.12

end

Begin	Rhodium		Rh	45	102.9	12.41

	  1.000		 7100
	  1.500		 2525
	  2.000		 1200
	  3.003		  417

	  3.003		 1530
	  3.146		 1360

	  3.146		 1920
	  3.412		 1570

	  3.412		 1820
	  4.000		 1221
	  5.000		  682
	 10.000		  107
	 15.000		   35.2
	 20.000		   15.8
	 23.220		   10.4

	 23.220		   62.2
	 30.000		   32.8
	 50.000		    8.45
	100.000		    1.29

end

Begin	Silver		Ag	47	107.9	10.50

	  1.000		 7927
	  1.500		 2916
	  2.000		 1434
	  3.000		  527
	  3.351		  401

	  3.351		 1280
	  3.524		 1130

	  3.524		 1590
	  3.806		 1310

	  3.806		 1520
	  5.000		  758
	 10.000		  121
	 15.000		   40.1
	 20.000		   18.1
	 25.514		    9.2

	 25.514		   55.2
	 30.000		   36.6
	 50.000		    9.44
	100.000		    1.46

end

Begin	Tantalum	Ta	73	180.95	16.65

	  1.000		 4580
	  1.500		 1686
	  1.735		 1180

	  1.735		 4050
	  1.793		 3710

	  1.793		 5270
	  2.000		 3946
	  2.194		 3090

	  2.194		 4100
	  2.469		 3000

	  2.469		 3360
	  2.703		 2645

	  2.703		 2850
	  3.000		 2170
	  5.000		  568
	  9.881		   94.8

	  9.881		  239
	 10.000		  231.8
	 11.136		  176

	 11.136		  247
	 11.680		  218.4

	 11.680		  253
	 15.000		  133
	 20.000		   63
	 30.000		   21.8
	 50.000		    5.73
	 60.000		    3.58
	 67.414		    2.66

	 67.414		   11.5
	 80.000		    7.48
	100.000		    4.23

end

Begin	Tungsten	 W	74	183.85	19.3

	  1.000		 4600
	  1.500		 1800
	  1.809		 1170

	  1.809		 3530
	  1.871		 3241

	  1.871		 4570
	  2.000		 3843
	  2.281		 2730

	  2.281		 3620
	  2.575		 2640

	  2.575		 2980
	  2.818		 2360

	  2.818		 2550
	  3.000		 2171
	  5.000		  578
	 10.000		   98.0
	 10.204		   93.1

	 10.204		  237
	 11.542		  173

	 11.542		  242
	 12.098		  214.4

	 12.098		  248
	 15.000		  142
	 20.000		   67.0
	 30.000		   23.0
	 50.000		    5.95
	 69.524		    2.51

	 69.524		   11.0
	 80.000		    7.79
	100.000		    4.43

end

Begin	Rhenium 	Re	75	186.2	21.02

	  1.000		 4950
	  1.500		 1910
	  1.883		 1130

	  1.883		 3420
	  1.949		 3130

	  1.949		 4410
	  2.000		 4120
	  2.367		 2650

	  2.367		 3520
	  2.681		 2540

	  2.681		 2870
	  2.931		 2270

	  2.931		 2450
	  3.000		 2305
	  5.000		  609
	 10.000		  102
	 10.534		   89.4

	 10.534		  232
	 11.957		  166

	 11.957		  232
	 12.525		  205

	 12.525		  238
	 15.000		  148
	 20.000		   68.8
	 30.000		   23.6
	 50.000		    6.28
	 71.676		    2.53

	 71.676		   10.5
	 80.000		    8.08
	100.000		    4.68

end

begin	Platinum	Pt	78	195.1	21.45

	  1.000		 5430
	  1.500		 2120
	  2.000		 1081
	  2.122		  938

	  2.122		 3160
	  2.202		 2860

	  2.202		 3990
	  2.645		 2430

	  2.645		 3240
	  3.000		 2313
	  3.026		 2260

	  3.026		 2540
	  3.297		 2020

	  3.297		 2180
	  4.000		 1296
	  5.000		  707
	 10.000		  111
	 11.564		   75.9

	 11.564		  193
	 13.273		  135

	 13.273		  190
	 13.892		  169

	 13.892		  196
	 15.000		  161
	 20.000		   76.2
	 30.000		   26.4
	 50.000		    6.86
	 78.395		    2.12

	 78.395		    9.26
	 80.000		    8.78
	100.000		    4.89

end

begin	Gold		Au	79	196.97	18.88

	  1.000		 5710
	  1.500		 2240
	  2.000		 1150
	  2.206		  916

	  2.206		 2060
	  2.291		 1870

	  2.291		 3310
	  2.743		 2080

	  2.743		 2660
	  3.000		 2118
	  3.149		 1870

	  3.149		 2110
	  3.425		 1700

	  3.425		 1830
	  4.000		 1230
	  5.000		  695
	 10.000		  120
	 11.918		   77.3

	 11.918		  183
	 13.733		  128

	 13.733		  178
	 14.353		  159

	 14.353		  184
	 15.000		  164.5
	 20.000		   78.2
	 30.000		   27.2
	 50.000		    7.14
	 80.723		    2.06

	 80.723		    8.66
	100.000		    5.11

end

begin	Lead		Pb	82	207.2	11.35

	  1.000		 5240
	  1.500		 2510
	  2.000		 1320
	  2.484		  813

	  2.484		 2150
	  2.586		 1940

	  2.586		 2690
	  3.000		 1830
	  3.066		 1730

	  3.066		 2320
	  3.554		 1580

	  3.554		 1780
	  3.850		 1450

	  3.850		 1560
	  4.000		 1414
	  5.000		  791
	 10.000		  133
	 13.035		   67.8

	 13.035		  162
	 15.000		  112.8
	 15.198		  109

	 15.198		  152
	 15.860		  136

	 15.860		  157
	 20.000		   86.0
	 30.000		   29.8
	 50.000		    7.85
	 88.006		    1.84

	 88.006		    7.49
	100.000		    5.46

end
